wavelength      k_l
   0.00000     100.
   610.00000     28.59271
   620.00000     28.40726
   630.00000     28.22180
   640.00000     28.03635
   650.00000     27.85089
   660.00000     27.66544
   670.00000     27.47999
   680.00000     27.29453
   690.00000     27.10908
   700.00000     26.92362
   710.00000     26.73817
   720.00000     26.55271
   730.00000     26.36726
   740.00000     26.18181
   750.00000     25.99635
   760.00000     25.81090
   770.00000     25.62544
   780.00000     25.43999
   790.00000     25.25453
   800.00000     25.06908
   810.00000     24.88363
   820.00000     24.69817
   830.00000     24.51272
   840.00000     24.32726
   850.00000     24.14181
   860.00000     23.95635
   870.00000     23.77090
   880.00000     23.58545
   890.00000     23.39999
   900.00000     23.21454
   910.00000     23.02908
   920.00000     22.84363
   930.00000     22.65817
   940.00000     22.47272
   950.00000     22.28727
   960.00000     22.10181
   970.00000     21.91636
   980.00000     21.73090
   990.00000     21.54545
  1000.00000     21.35999
  1010.00000     21.17454
  1020.00000     20.98908
  1030.00000     20.80363
  1040.00000     20.61818
  1050.00000     20.43272
  1060.00000     20.24727
  1070.00000     20.06181
  1080.00000     19.87636
  1090.00000     19.69090
  1100.00000     19.50545
  1110.00000     19.32000
  1120.00000     19.13454
  1130.00000     18.94909
  1140.00000     18.76363
  1150.00000     18.57818
  1160.00000     18.39272
  1170.00000     18.20727
  1180.00000     18.02182
  1190.00000     17.83636
  1200.00000     17.65091
  1210.00000     17.46545
  1220.00000     17.28000
  1230.00000     17.09454
  1240.00000     16.90909
  1250.00000     16.72364
  1260.00000     16.53818
  1270.00000     16.35273
  1280.00000     16.16727
  1290.00000     15.98182
  1300.00000     15.79636
  1310.00000     15.61091
  1320.00000     15.42546
  1330.00000     15.24000
  1340.00000     15.05636
  1350.00000     14.87273
  1360.00000     14.68909
  1370.00000     14.50546
  1380.00000     14.32182
  1390.00000     14.15900
  1400.00000     14.01700
  1410.00000     13.87500
  1420.00000     13.73300
  1430.00000     13.59100
  1440.00000     13.43273
  1450.00000     13.25818
  1460.00000     13.08364
  1470.00000     12.90909
  1480.00000     12.73455
  1490.00000     12.56000
  1500.00000     12.45818
  1510.00000     12.35636
  1520.00000     12.25455
  1530.00000     12.15273
  1540.00000     12.05091
  1550.00000     11.97800
  1560.00000     11.93400
  1570.00000     11.89000
  1580.00000     11.84600
  1590.00000     11.80200
  1600.00000     11.72519
  1610.00000     11.61558
  1620.00000     11.50596
  1630.00000     11.39635
  1640.00000     11.28673
  1650.00000     11.18283
  1660.00000     11.09226
  1670.00000     11.00170
  1680.00000     10.91113
  1690.00000     10.82057
  1700.00000     10.73000
  1710.00000     10.67545
  1720.00000     10.62091
  1730.00000     10.56636
  1740.00000     10.51182
  1750.00000     10.45727
  1760.00000     10.38091
  1770.00000     10.28273
  1780.00000     10.18455
  1790.00000     10.08636
  1800.00000      9.98818
  1810.00000      9.89000
  1820.00000      9.83600
  1830.00000      9.78200
  1840.00000      9.72800
  1850.00000      9.67400
  1860.00000      9.62000
  1870.00000      9.59200
  1880.00000      9.56400
  1890.00000      9.53600
  1900.00000      9.50800
  1910.00000      9.48000
  1920.00000      9.43778
  1930.00000      9.39556
  1940.00000      9.35333
  1950.00000      9.31111
  1960.00000      9.26889
  1970.00000      9.22667
  1980.00000      9.18444
  1990.00000      9.14222
  2000.00000      9.10000
  2010.00000      9.05391
  2020.00000      9.00783
  2030.00000      8.96174
  2040.00000      8.91565
  2050.00000      8.86957
  2060.00000      8.82348
  2070.00000      8.77739
  2080.00000      8.73130
  2090.00000      8.68522
  2100.00000      8.63913
  2110.00000      8.59304
  2120.00000      8.54381
  2130.00000      8.49143
  2140.00000      8.43905
  2150.00000      8.38667
  2160.00000      8.33429
  2170.00000      8.28191
  2180.00000      8.22952
  2190.00000      8.17714
  2200.00000      8.12476
  2210.00000      8.07238
  2220.00000      8.02000
  2230.00000      7.95304
  2240.00000      7.88609
  2250.00000      7.81913
  2260.00000      7.75217
  2270.00000      7.68522
  2280.00000      7.61826
  2290.00000      7.55130
  2300.00000      7.48435
  2310.00000      7.41739
  2320.00000      7.35044
  2330.00000      7.28348
  2340.00000      7.23682
  2350.00000      7.21045
  2360.00000      7.18409
  2370.00000      7.15773
  2380.00000      7.13136
  2390.00000      7.10500
  2400.00000      7.07864
  2410.00000      7.05227
  2420.00000      7.02591
  2430.00000      6.99955
  2440.00000      6.97318
  2450.00000      6.94429
  2460.00000      6.91286
  2470.00000      6.88143
  2480.00000      6.85000
  2490.00000      6.81857
  2500.00000      6.78714
  2510.00000      6.75571
  2520.00000      6.72429
  2530.00000      6.69286
  2540.00000      6.66143
  2550.00000      6.63000
  2560.00000      6.59348
  2570.00000      6.55696
  2580.00000      6.52043
  2590.00000      6.48391
  2600.00000      6.44739
  2610.00000      6.41087
  2620.00000      6.37435
  2630.00000      6.33783
  2640.00000      6.30130
  2650.00000      6.26478
  2660.00000      6.22826
  2670.00000      6.19496
  2680.00000      6.16487
  2690.00000      6.13478
  2700.00000      6.10469
  2710.00000      6.07460
  2720.00000      6.04451
  2730.00000      6.01442
  2740.00000      5.98434
  2750.00000      5.95425
  2760.00000      5.92416
  2770.00000      5.89407
  2780.00000      5.86732
  2790.00000      5.85393
  2800.00000      5.84054
  2810.00000      5.82714
  2820.00000      5.81375
  2830.00000      5.80036
  2840.00000      5.78696
  2850.00000      5.77357
  2860.00000      5.76018
  2870.00000      5.74679
  2880.00000      5.73339
  2890.00000      5.72000
  2900.00000      5.68667
  2910.00000      5.65333
  2920.00000      5.62000
  2930.00000      5.58667
  2940.00000      5.55333
  2950.00000      5.52000
  2960.00000      5.48667
  2970.00000      5.45333
  2980.00000      5.42000
  2990.00000      5.38667
  3000.00000      5.35364
  3010.00000      5.32091
  3020.00000      5.28818
  3030.00000      5.25545
  3040.00000      5.22273
  3050.00000      5.19000
  3060.00000      5.15727
  3070.00000      5.12455
  3080.00000      5.09182
  3090.00000      5.05909
  3100.00000      5.02636
  3110.00000      5.00599
  3120.00000      4.99798
  3130.00000      4.98997
  3140.00000      4.98195
  3150.00000      4.97394
  3160.00000      4.96593
  3170.00000      4.95791
  3180.00000      4.94990
  3190.00000      4.94189
  3200.00000      4.93387
  3210.00000      4.92586
  3220.00000      4.91785
  3230.00000      4.90983
  3240.00000      4.90182
  3250.00000      4.89381
  3260.00000      4.88579
  3270.00000      4.87778
  3280.00000      4.86977
  3290.00000      4.86175
  3300.00000      4.85374
  3310.00000      4.84573
  3320.00000      4.83771
  3330.00000      4.82970
  3340.00000      4.82169
  3350.00000      4.81367
  3360.00000      4.80566
  3370.00000      4.79765
  3380.00000      4.78963
  3390.00000      4.78162
  3400.00000      4.77361
  3410.00000      4.76559
  3420.00000      4.75758
  3430.00000      4.74957
  3440.00000      4.74155
  3450.00000      4.73354
  3460.00000      4.72553
  3470.00000      4.71751
  3480.00000      4.70950
  3490.00000      4.70149
  3500.00000      4.69347
  3510.00000      4.68546
  3520.00000      4.67745
  3530.00000      4.66943
  3540.00000      4.66142
  3550.00000      4.65341
  3560.00000      4.64539
  3570.00000      4.63738
  3580.00000      4.62937
  3590.00000      4.62135
  3600.00000      4.61334
  3610.00000      4.60533
  3620.00000      4.59731
  3630.00000      4.58930
  3640.00000      4.58129
  3650.00000      4.57327
  3660.00000      4.56526
  3670.00000      4.55725
  3680.00000      4.54923
  3690.00000      4.54122
  3700.00000      4.53321
  3710.00000      4.52118
  3720.00000      4.50648
  3730.00000      4.49178
  3740.00000      4.47708
  3750.00000      4.46238
  3760.00000      4.44768
  3770.00000      4.43298
  3780.00000      4.41828
  3790.00000      4.40358
  3800.00000      4.38887
  3810.00000      4.37417
  3820.00000      4.35947
  3830.00000      4.34477
  3840.00000      4.33007
  3850.00000      4.31537
  3860.00000      4.30067
  3870.00000      4.28597
  3880.00000      4.27127
  3890.00000      4.25657
  3900.00000      4.24187
  3910.00000      4.22717
  3920.00000      4.21247
  3930.00000      4.19777
  3940.00000      4.18307
  3950.00000      4.16837
  3960.00000      4.15367
  3970.00000      4.13897
  3980.00000      4.12426
  3990.00000      4.10956
  4000.00000      4.09486
  4010.00000      4.08016
  4020.00000      4.06546
  4030.00000      4.05076
  4040.00000      4.03606
  4050.00000      4.02136
  4060.00000      4.00666
  4070.00000      3.99196
  4080.00000      3.97726
  4090.00000      3.96256
  4100.00000      3.94786
  4110.00000      3.93316
  4120.00000      3.91846
  4130.00000      3.90376
  4140.00000      3.88906
  4150.00000      3.87436
  4160.00000      3.85966
  4170.00000      3.84495
  4180.00000      3.83025
  4190.00000      3.81555
  4200.00000      3.80085
  4210.00000      3.78615
  4220.00000      3.77145
  4230.00000      3.75675
  4240.00000      3.74205
  4250.00000      3.72735
  4260.00000      3.71517
  4270.00000      3.70552
  4280.00000      3.69587
  4290.00000      3.68622
  4300.00000      3.67656
  4310.00000      3.66691
  4320.00000      3.65726
  4330.00000      3.64761
  4340.00000      3.63795
  4350.00000      3.62830
  4360.00000      3.61865
  4370.00000      3.60900
  4380.00000      3.59934
  4390.00000      3.58969
  4400.00000      3.58004
  4410.00000      3.57039
  4420.00000      3.56073
  4430.00000      3.55108
  4440.00000      3.54143
  4450.00000      3.53178
  4460.00000      3.52212
  4470.00000      3.51247
  4480.00000      3.50282
  4490.00000      3.49317
  4500.00000      3.48351
  4510.00000      3.47386
  4520.00000      3.46421
  4530.00000      3.45456
  4540.00000      3.44490
  4550.00000      3.43525
  4560.00000      3.42560
  4570.00000      3.41595
  4580.00000      3.40629
  4590.00000      3.39664
  4600.00000      3.38699
  4610.00000      3.37734
  4620.00000      3.36768
  4630.00000      3.35803
  4640.00000      3.34838
  4650.00000      3.33873
  4660.00000      3.32907
  4670.00000      3.31942
  4680.00000      3.30977
  4690.00000      3.30012
  4700.00000      3.29046
  4710.00000      3.28081
  4720.00000      3.27116
  4730.00000      3.26151
  4740.00000      3.25185
  4750.00000      3.24220
  4760.00000      3.23255
  4770.00000      3.22290
  4780.00000      3.21324
  4790.00000      3.20359
  4800.00000      3.19394
  4810.00000      3.18429
  4820.00000      3.17463
  4830.00000      3.16498
  4840.00000      3.15533
  4850.00000      3.14568
  4860.00000      3.13602
  4870.00000      3.12637
  4880.00000      3.11672
  4890.00000      3.10707
  4900.00000      3.09741
  4910.00000      3.08776
  4920.00000      3.07811
  4930.00000      3.06846
  4940.00000      3.05880
  4950.00000      3.04915
  4960.00000      3.03950
  4970.00000      3.02985
  4980.00000      3.02019
  4990.00000      3.01054
  5000.00000      3.00089
  5010.00000      2.99124
  5020.00000      2.98158
  5030.00000      2.97193
  5040.00000      2.96228
  5050.00000      2.95263
  5060.00000      2.94297
  5070.00000      2.93332
  5080.00000      2.92367
  5090.00000      2.91402
  5100.00000      2.90436
  5110.00000      2.89471
  5120.00000      2.88506
  5130.00000      2.87541
  5140.00000      2.86575
  5150.00000      2.85610
  5160.00000      2.84645
  5170.00000      2.83680
  5180.00000      2.82714
  5190.00000      2.81749
  5200.00000      2.80784
  5210.00000      2.79819
  5220.00000      2.78853
  5230.00000      2.77888
  5240.00000      2.76923
  5250.00000      2.75958
  5260.00000      2.74992
  5270.00000      2.74027
  5280.00000      2.73062
  5290.00000      2.72097
  5300.00000      2.71748
  5310.00000      2.71468
  5320.00000      2.71187
  5330.00000      2.70907
  5340.00000      2.70627
  5350.00000      2.70347
  5360.00000      2.70067
  5370.00000      2.69786
  5380.00000      2.69506
  5390.00000      2.69226
  5400.00000      2.68946
  5410.00000      2.68666
  5420.00000      2.68385
  5430.00000      2.68105
  5440.00000      2.67825
  5450.00000      2.67545
  5460.00000      2.67265
  5470.00000      2.66984
  5480.00000      2.66704
  5490.00000      2.66424
  5500.00000      2.66144
  5510.00000      2.65864
  5520.00000      2.65583
  5530.00000      2.65303
  5540.00000      2.65023
  5550.00000      2.64743
  5560.00000      2.64462
  5570.00000      2.64182
  5580.00000      2.63902
  5590.00000      2.63622
  5600.00000      2.63342
  5610.00000      2.63061
  5620.00000      2.62781
  5630.00000      2.62501
  5640.00000      2.62221
  5650.00000      2.61941
  5660.00000      2.61660
  5670.00000      2.61380
  5680.00000      2.61100
  5690.00000      2.60820
  5700.00000      2.60540
  5710.00000      2.60259
  5720.00000      2.59979
  5730.00000      2.59699
  5740.00000      2.59419
  5750.00000      2.59139
  5760.00000      2.58858
  5770.00000      2.58578
  5780.00000      2.58298
  5790.00000      2.58018
  5800.00000      2.57738
  5810.00000      2.57457
  5820.00000      2.57177
  5830.00000      2.56897
  5840.00000      2.56617
  5850.00000      2.56337
  5860.00000      2.56056
  5870.00000      2.55776
  5880.00000      2.55496
  5890.00000      2.55216
  5900.00000      2.54936
  5910.00000      2.54655
  5920.00000      2.54375
  5930.00000      2.54095
  5940.00000      2.53815
  5950.00000      2.53534
  5960.00000      2.53254
  5970.00000      2.52974
  5980.00000      2.52694
  5990.00000      2.52414
  6000.00000      2.52133
  6010.00000      2.51853
  6020.00000      2.51573
  6030.00000      2.51293
  6040.00000      2.51013
  6050.00000      2.50732
  6060.00000      2.50452
  6070.00000      2.50172
  6080.00000      2.49892
  6090.00000      2.49612
  6100.00000      2.49331
  6110.00000      2.49051
  6120.00000      2.48771
  6130.00000      2.48491
  6140.00000      2.48211
  6150.00000      2.47930
  6160.00000      2.47650
  6170.00000      2.47370
  6180.00000      2.47090
  6190.00000      2.46810
  6200.00000      2.46529
  6210.00000      2.46249
  6220.00000      2.45969
  6230.00000      2.45689
  6240.00000      2.45409
  6250.00000      2.45128
  6260.00000      2.44848
  6270.00000      2.44568
  6280.00000      2.44288
  6290.00000      2.44007
  6300.00000      2.43727
  6310.00000      2.43447
  6320.00000      2.43167
  6330.00000      2.42887
  6340.00000      2.42606
  6350.00000      2.42326
  6360.00000      2.42046
  6370.00000      2.41766
  6380.00000      2.41486
  6390.00000      2.41205
  6400.00000      2.40925
  6410.00000      2.40645
  6420.00000      2.40365
  6430.00000      2.40085
  6440.00000      2.39804
  6450.00000      2.39524
  6460.00000      2.39244
  6470.00000      2.38964
  6480.00000      2.38684
  6490.00000      2.38403
  6500.00000      2.38123
  6510.00000      2.37843
  6520.00000      2.37563
  6530.00000      2.37283
  6540.00000      2.37002
  6550.00000      2.36722
  6560.00000      2.36442
  6570.00000      2.36162
  6580.00000      2.35882
  6590.00000      2.35601
  6600.00000      2.35321
  6610.00000      2.35041
  6620.00000      2.34761
  6630.00000      2.34481
  6640.00000      2.34200
  6650.00000      2.33920
  6660.00000      2.33640
  6670.00000      2.33360
  6680.00000      2.33079
  6690.00000      2.32799
  6700.00000      2.32519
  6710.00000      2.32239
  6720.00000      2.31959
  6730.00000      2.31678
  6740.00000      2.31398
  6750.00000      2.31118
  6760.00000      2.30838
  6770.00000      2.30558
  6780.00000      2.30277
  6790.00000      2.29997
  6800.00000      2.29717
  6810.00000      2.29437
  6820.00000      2.29157
  6830.00000      2.28876
  6840.00000      2.28596
  6850.00000      2.28316
  6860.00000      2.28036
  6870.00000      2.27756
  6880.00000      2.27475
  6890.00000      2.27195
  6900.00000      2.26915
  6910.00000      2.26635
  6920.00000      2.26355
  6930.00000      2.26074
  6940.00000      2.25794
  6950.00000      2.25514
  6960.00000      2.25234
  6970.00000      2.24954
  6980.00000      2.24673
  6990.00000      2.24393
  7000.00000      2.24113
  7010.00000      2.23833
  7020.00000      2.23553
  7030.00000      2.23272
  7040.00000      2.22992
  7050.00000      2.22712
  7060.00000      2.22432
  7070.00000      2.22151
  7080.00000      2.21871
  7090.00000      2.21591
  7100.00000      2.21311
  7110.00000      2.21031
  7120.00000      2.20750
  7130.00000      2.20470
  7140.00000      2.20190
  7150.00000      2.19910
  7160.00000      2.19630
  7170.00000      2.19349
  7180.00000      2.19069
  7190.00000      2.18789
  7200.00000      2.18509
  7210.00000      2.18229
  7220.00000      2.17948
  7230.00000      2.17668
  7240.00000      2.17388
  7250.00000      2.17108
  7260.00000      2.16828
  7270.00000      2.16547
  7280.00000      2.16267
  7290.00000      2.15987
  7300.00000      2.15707
  7310.00000      2.15427
  7320.00000      2.15146
  7330.00000      2.14866
  7340.00000      2.14586
  7350.00000      2.14306
  7360.00000      2.14026
  7370.00000      2.13745
  7380.00000      2.13465
  7390.00000      2.13185
  7400.00000      2.12905
  7410.00000      2.12625
  7420.00000      2.12344
  7430.00000      2.12064
  7440.00000      2.11784
  7450.00000      2.11504
  7460.00000      2.11223
  7470.00000      2.10943
  7480.00000      2.10663
  7490.00000      2.10383
  7500.00000      2.10103
  7510.00000      2.09822
  7520.00000      2.09542
  7530.00000      2.09262
  7540.00000      2.08982
  7550.00000      2.08702
  7560.00000      2.08421
  7570.00000      2.08141
  7580.00000      2.07861
  7590.00000      2.07581
  7600.00000      2.07301
  7610.00000      2.07020
  7620.00000      2.06740
  7630.00000      2.06460
  7640.00000      2.06180
  7650.00000      2.05900
  7660.00000      2.05619
  7670.00000      2.05339
  7680.00000      2.05059
  7690.00000      2.04779
  7700.00000      2.04499
  7710.00000      2.04218
  7720.00000      2.03938
  7730.00000      2.03658
  7740.00000      2.03378
  7750.00000      2.03098
  7760.00000      2.02817
  7770.00000      2.02537
  7780.00000      2.02257
  7790.00000      2.01977
  7800.00000      2.01696
  7810.00000      2.01416
  7820.00000      2.01136
  7830.00000      2.00856
  7840.00000      2.00576
  7850.00000      2.00295
  7860.00000      2.00015
  7870.00000      1.99735
  7880.00000      1.99455
  7890.00000      1.99175
  7900.00000      1.98894
  7910.00000      1.98614
  7920.00000      1.98334
  7930.00000      1.98054
  7940.00000      1.97774
  7950.00000      1.97493
  7960.00000      1.97213
  7970.00000      1.96933
  7980.00000      1.96653
  7990.00000      1.96373
  8000.00000      1.96092
  8010.00000      1.95812
  8020.00000      1.95532
  8030.00000      1.95252
  8040.00000      1.94972
  8050.00000      1.94691
  8060.00000      1.94411
  8070.00000      1.94131
  8080.00000      1.93851
  8090.00000      1.93571
  8100.00000      1.93290
  8110.00000      1.93010
  8120.00000      1.92730
  8130.00000      1.92450
  8140.00000      1.92170
  8150.00000      1.91889
  8160.00000      1.91609
  8170.00000      1.91329
  8180.00000      1.91049
  8190.00000      1.90768
  8200.00000      1.90488
  8210.00000      1.90208
  8220.00000      1.89928
  8230.00000      1.89648
  8240.00000      1.89367
  8250.00000      1.89087
  8260.00000      1.88807
  8270.00000      1.88527
